EXPLAIN
TAG	GALVEIS
TITLE	LABEL	EIS Measurement	Test &Identifier
DATE	LABEL	10/23/2021	Date
TIME	LABEL	7:20:25	Time
NOTES	NOTES	1	&Notes...
	
PSTAT	PSTAT	IFC5000-03590	Potentiostat
IDCREQ	QUANT	0.00000E+000	DC &Current (A)
FREQINIT	QUANT	1.00000E+005	Initial Fre&q. (Hz)
FREQFINAL	QUANT	1.00000E+000	Final Fre&q. (Hz)
PTSPERDEC	QUANT	3.00000E+000	Points/&decade
IACREQ	QUANT	1.00000E+000	AC &Current (A rms)
AREA	QUANT	1.00000E+000	&Area (cm^2)
CONDIT	TWOPARAM	F	1.50000E+001	0.00000E+000	Conditionin&g	Time(s)	E(V)
DELAY	TWOPARAM	T	5.00000E+000	0.00000E+000	Init. De&lay	Time(s)	Stab.(mV/s)
SPEED	IQUANT	1	&Optimize for:
ZGUESS	QUANT	1.00000E+000	E&stimated Z (ohms)
EOC	QUANT	0	Open Circuit (V)
PSTATMODEL	IQUANT	53	Pstat Model
PSTATSECTION	LABEL	IFC5000-03590	Pstat Section
PSTATSERIALNO	LABEL	03590	Pstat Serial Number
CTRLMODE	IQUANT	0	Control Mode
ELECTROMETER	IQUANT	0	RE=0 or CS=1
IESTAB	IQUANT	0	I/E Stability
CASPEED	IQUANT	4	Control Amp Speed
CONVENTION	IQUANT	1	Current Convention
ICHRANGE	IQUANT	2	Ich Range
ICHRANGEMODE	TOGGLE	F	Ich Auto Range
ICHOFFSETENABLE	TOGGLE	T	Ich Offset Enable
ICHOFFSET	QUANT	0	Ich Offset (V)
ICHFILTER	IQUANT	3	Ich Filter
VCHRANGE	IQUANT	2	Vch Range
VCHRANGEMODE	TOGGLE	F	Vch Auto Range
VCHOFFSETENABLE	TOGGLE	T	Vch Offset Enable
VCHOFFSET	QUANT	0	Vch Offset (V)
VCHFILTER	IQUANT	3	Vch Filter
IERANGELOWERLIMIT	IQUANT	7	I/E Range Lower Limit
IERANGEMODE	TOGGLE	F	I/E AutoRange
IERANGE	IQUANT	10	I/E Range
ACHSELECT	IQUANT	0	Ach Select
ACHRANGE	IQUANT	2	Ach Range
ACHOFFSETENABLE	TOGGLE	F	Ach Offset Enable
ACHOFFSET	QUANT	0	Ach Offset (V)
ACHFILTER	IQUANT	1	Ach Filter
SENSECABLEID	IQUANT	14	Sense Cable ID
PWRCABLEID	IQUANT	7	Power Cable ID
DCCALDATE	LABEL	10/14/2021	DC Calibration Date
ACCALDATE	LABEL	2/7/2018	AC Calibration Date
FRAMEWORKVERSION	QUANT	7.06	Framework Version
INSTRUMENTVERSION	LABEL	4.30	Instrument Version
ZCURVE	TABLE
	Pt	Time	Freq	Zreal	Zimag	Zsig	Zmod	Zphz	Idc	Vdc	IERange
	#	s	Hz	ohm	ohm	V	ohm	Â°	A	V	#
	0	1	100019.5	0.0229291	-0.0030148	1	0.0231264	-7.490437	0.0018029	3.760538	12
	1	2	46464.84	0.0162025	0.0022876	1	0.0163632	8.036185	0.0019511	3.760587	12
	2	4	21621.09	0.011836	0.0034139	1	0.0123185	16.08913	0.0020157	3.760552	12
	3	5	10019.53	0.0093414	0.0023389	1	0.0096298	14.05653	0.0020214	3.760539	12
	4	6	4630.335	0.0084784	0.0008887	1	0.0085248	5.983749	0.0016092	3.760588	12
	5	7	2141.204	0.0085059	-0.0001959	1	0.0085082	-1.31953	0.0015952	3.760565	12
	6	9	1000.702	0.0089637	-0.0009269	1	0.0090115	-5.903959	0.0016182	3.760558	12
	7	10	463.5989	0.0097023	-0.001413	1	0.0098047	-8.28618	0.0015795	3.760599	12
	8	11	215.0229	0.0106352	-0.0016568	1	0.0107635	-8.854591	0.0015841	3.760582	12
	9	12	99.734	0.0116262	-0.0016203	1	0.0117386	-7.933879	0.0015549	3.760585	12
	10	14	45.95588	0.0124733	-0.0013285	1	0.0125438	-6.079385	0.0016273	3.76058	12
	11	15	21.50229	0.0130281	-0.0009596	1	0.0130634	-4.212512	0.0016696	3.760617	12
	12	16	9.9734	0.013348	-0.0006621	1	0.0133644	-2.839614	0.0016631	3.760635	12
	13	18	4.650298	0.0135265	-0.0005055	1	0.0135359	-2.140391	0.001661	3.760644	12
	14	21	2.170139	0.0136656	-0.0004833	1	0.0136741	-2.025336	0.0017331	3.760725	12
	15	24	0.997765	0.0138303	-0.0006665	1	0.0138464	-2.759135	0.0017134	3.760797	12
